Wavelength in angstrom in first column, Flux in erg/cm^2/s/A in second column
      1711.29  3.75330e-14
      1712.67  1.73680e-14
      1714.04  2.12910e-14
      1715.41  1.35110e-14
      1716.78  1.59290e-14
      1718.15  8.16780e-15
      1719.52 -9.17030e-17
      1720.89  6.33530e-15
      1722.26  1.06150e-14
      1723.63  3.72100e-15
      1725.01 -3.41440e-15
      1726.38  6.62960e-15
      1727.75  1.31430e-14
      1729.12  2.11540e-14
      1730.49  1.13530e-14
      1731.86  1.20040e-14
      1733.23  1.32610e-14
      1734.60 -4.91510e-15
      1735.98 -2.26990e-15
      1737.35 -1.99440e-15
      1738.72  1.59770e-14
      1740.09 -3.12730e-15
      1741.46  7.90930e-15
      1742.83  2.27550e-14
      1744.20  1.07170e-14
      1745.57  1.07210e-14
      1746.95  2.18250e-14
      1748.32  1.75290e-14
      1749.69  9.59570e-15
      1751.06  2.24850e-14
      1752.43  1.69870e-14
      1753.80  3.32490e-14
      1755.17  2.53480e-14
      1756.55  2.05680e-14
      1757.92  2.13430e-14
      1759.29  2.83860e-14
      1760.66  2.70790e-14
      1762.03  3.11120e-14
      1763.40  2.44060e-14
      1764.77  1.60130e-14
      1766.15  2.17030e-14
      1767.52  1.96070e-14
      1768.89  2.81440e-14
      1770.26  2.44510e-14
      1771.63  2.94460e-14
      1773.00  1.89380e-14
      1774.38  2.72650e-14
      1775.75  1.02990e-14
      1777.12  1.83010e-14
      1778.49  1.95240e-14
      1779.86  3.16520e-14
      1781.23  3.13450e-14
      1782.60  2.82690e-14
      1783.98  2.45920e-14
      1785.35  2.25760e-14
      1786.72  1.81350e-14
      1788.09  1.40230e-14
      1789.46  2.24930e-14
      1790.84  2.03060e-14
      1792.21  1.87010e-14
      1793.58  1.93850e-14
      1794.95  2.01130e-14
      1796.32  2.37560e-14
      1797.69  2.62330e-14
      1799.07  2.74180e-14
      1800.44  2.84300e-14
      1801.81  2.94120e-14
      1803.18  2.59880e-14
      1804.55  2.30030e-14
      1805.93  3.06450e-14
      1807.30  2.83950e-14
      1808.67  3.50430e-14
      1810.04  3.00110e-14
      1811.41  2.19450e-14
      1812.78  2.53890e-14
      1814.16  2.14580e-14
      1815.53  3.66020e-14
      1816.90  3.26880e-14
      1818.27  2.06420e-14
      1819.64  2.13530e-14
      1821.02  2.32780e-14
      1822.39  2.39810e-14
      1823.76  3.20480e-14
      1825.13  2.77290e-14
      1826.50  2.29150e-14
      1827.88  2.64020e-14
      1829.25  2.86120e-14
      1830.62  2.89160e-14
      1831.99  2.47230e-14
      1833.37  3.09910e-14
      1834.74  2.93580e-14
      1836.11  2.31470e-14
      1837.48  2.82210e-14
      1838.85  3.04570e-14
      1840.23  3.47660e-14
      1841.60  2.63810e-14
      1842.97  2.06620e-14
      1844.34  2.40960e-14
      1845.71  2.63010e-14
      1847.09  1.85850e-14
      1848.46  2.89840e-14
      1849.83  2.74530e-14
      1851.20  8.80930e-15
      1852.58  3.15430e-14
      1853.95  3.39100e-14
      1855.32  3.01550e-14
      1856.69  2.98540e-14
      1858.07  2.81690e-14
      1859.44  2.68970e-14
      1860.81  2.50430e-14
      1862.18  2.54290e-14
      1863.55  3.39180e-14
      1864.93  2.84220e-14
      1866.30  2.99580e-14
      1867.67  3.33210e-14
      1869.04  3.32720e-14
      1870.42  3.12010e-14
      1871.79  3.16900e-14
      1873.16  3.59530e-14
      1874.53  3.11550e-14
      1875.91  3.88340e-14
      1877.28  2.59950e-14
      1878.65  2.99420e-14
      1880.02  3.05920e-14
      1881.40  2.90240e-14
      1882.77  4.99850e-14
      1884.14  3.60660e-14
      1885.51  3.42660e-14
      1886.89  2.48900e-14
      1888.26  3.66360e-14
      1889.63  3.62660e-14
      1891.00  3.55990e-14
      1892.38  3.68630e-14
      1893.75  4.12360e-14
      1895.12  3.64780e-14
      1896.49  3.12540e-14
      1897.87  3.19300e-14
      1899.24  3.36330e-14
      1900.61  3.99090e-14
      1901.98  4.45020e-14
      1903.36  3.64680e-14
      1904.73  4.60600e-14
      1906.10  4.05080e-14
      1907.47  3.81240e-14
      1908.85  3.70720e-14
      1910.22  4.25010e-14
      1911.59  3.91110e-14
      1912.97  4.59430e-14
      1914.34  4.87160e-14
      1915.71  4.63500e-14
      1917.08  3.90790e-14
      1918.46  4.56650e-14
      1919.83  3.87080e-14
      1921.20  4.35430e-14
      1922.57  4.32080e-14
      1923.95  4.52880e-14
      1925.32  4.19730e-14
      1926.69  4.49970e-14
      1928.07  4.21990e-14
      1929.44  3.92990e-14
      1930.81  3.68080e-14
      1932.18  3.96660e-14
      1933.56  2.86540e-14
      1934.93  2.87520e-14
      1936.30  3.85220e-14
      1937.68  3.36420e-14
      1939.05  4.12880e-14
      1940.42  3.98740e-14
      1941.79  5.03090e-14
      1943.17  5.08370e-14
      1944.54  4.76970e-14
      1945.91  5.04880e-14
      1947.29  4.48590e-14
      1948.66  5.22760e-14
      1950.03  5.26700e-14
      1951.40  4.67810e-14
      1952.78  4.45410e-14
      1954.15  4.85560e-14
      1955.52  5.04090e-14
      1956.90  4.77360e-14
      1958.27  4.80930e-14
      1959.64  5.22480e-14
      1961.02  4.76600e-14
      1962.39  4.40570e-14
      1963.76  4.84890e-14
      1965.13  5.32890e-14
      1966.51  4.87720e-14
      1967.88  5.25150e-14
      1969.25  6.05400e-14
      1970.63  4.70780e-14
      1972.00  5.26210e-14
      1973.37  5.44130e-14
      1974.75  5.75960e-14
      1976.12  5.16350e-14
      1977.49  4.81710e-14
      1978.87  5.69590e-14
      1980.24  5.27270e-14
      1981.61  5.21810e-14
      1982.98  5.12990e-14
      1984.36  5.42080e-14
      1985.73  5.20420e-14
      1987.10  5.24210e-14
      1988.48  4.97730e-14
      1989.85  4.50860e-14
      1991.22  5.11960e-14
      1992.60  4.97680e-14
      1993.97  5.28600e-14
      1995.34  5.33700e-14
      1996.72  5.45450e-14
      1998.09  5.70170e-14
      1999.46  5.30490e-14
      2000.84  5.40260e-14
      2002.21  5.73320e-14
      2003.58  6.33970e-14
      2004.96  5.97540e-14
      2006.33  5.74130e-14
      2007.70  6.09220e-14
      2009.08  6.26490e-14
      2010.45  5.80070e-14
      2011.82  6.08390e-14
      2013.20  6.64480e-14
      2014.57  5.93220e-14
      2015.94  5.99070e-14
      2017.32  6.49510e-14
      2018.69  6.70080e-14
      2020.06  6.62460e-14
      2021.44  6.47030e-14
      2022.81  6.78760e-14
      2024.18  6.32290e-14
      2025.56  5.66770e-14
      2026.93  5.83990e-14
      2028.30  6.88780e-14
      2029.68  6.55460e-14
      2031.05  6.71640e-14
      2032.42  6.85740e-14
      2033.80  6.50660e-14
      2035.17  6.31020e-14
      2036.54  7.28470e-14
      2037.92  7.35260e-14
      2039.29  6.51390e-14
      2040.66  6.67780e-14
      2042.04  7.43560e-14
      2043.41  7.28040e-14
      2044.78  7.32450e-14
      2046.16  7.27840e-14
      2047.53  7.64630e-14
      2048.90  7.34720e-14
      2050.28  7.94550e-14
      2051.65  8.25700e-14
      2053.02  7.96040e-14
      2054.40  7.70250e-14
      2055.77  8.24820e-14
      2057.14  7.90940e-14
      2058.52  7.87470e-14
      2059.89  7.90200e-14
      2061.26  8.28410e-14
      2062.64  7.74190e-14
      2064.01  8.02150e-14
      2065.39  8.31780e-14
      2066.76  8.49400e-14
      2068.13  7.90400e-14
      2069.51  8.80770e-14
      2070.88  8.73860e-14
      2072.25  9.24040e-14
      2073.63  9.12140e-14
      2075.00  9.80350e-14
      2076.37  9.79870e-14
      2077.75  9.76810e-14
      2079.12  9.83570e-14
      2080.49  9.88980e-14
      2081.87  9.34160e-14
      2083.24  9.17780e-14
      2084.62  9.72700e-14
      2085.99  1.00630e-13
      2087.36  1.02920e-13
      2088.74  1.12210e-13
      2090.11  1.11370e-13
      2091.48  1.14250e-13
      2092.86  1.24140e-13
      2094.23  1.30340e-13
      2095.60  1.31510e-13
      2096.98  1.40270e-13
      2098.35  1.40950e-13
      2099.73  1.40940e-13
      2101.10  1.49440e-13
      2102.47  1.65630e-13
      2103.85  1.56750e-13
      2105.22  1.75090e-13
      2106.59  1.86330e-13
      2107.97  1.75750e-13
      2109.34  1.57050e-13
      2110.72  1.59010e-13
      2112.09  1.82350e-13
      2113.46  1.80660e-13
      2114.84  1.76450e-13
      2116.21  1.98920e-13
      2117.58  2.25490e-13
      2118.96  2.24910e-13
      2120.33  2.41830e-13
      2121.70  2.23600e-13
      2123.08  1.82570e-13
      2124.45  1.40030e-13
      2125.83  1.49250e-13
      2127.20  1.87970e-13
      2128.57  1.98140e-13
      2129.95  1.91360e-13
      2131.32  1.66830e-13
      2132.69  1.73730e-13
      2134.07  1.71400e-13
      2135.44  1.65470e-13
      2136.82  1.84690e-13
      2138.19  1.97300e-13
      2139.56  1.85980e-13
      2140.94  2.22350e-13
      2142.31  2.60280e-13
      2143.69  2.50480e-13
      2145.06  2.40800e-13
      2146.43  2.17400e-13
      2147.81  2.13990e-13
      2149.18  2.19300e-13
      2150.55  2.18060e-13
      2151.93  2.11720e-13
      2153.30  2.30220e-13
      2154.68  2.35450e-13
      2156.05  2.07350e-13
      2157.42  1.80490e-13
      2158.80  1.57840e-13
      2160.17  1.80580e-13
      2161.54  2.09310e-13
      2162.92  2.19060e-13
      2164.29  2.04690e-13
      2165.67  1.84920e-13
      2167.04  1.55710e-13
      2168.41  1.61400e-13
      2169.79  1.69080e-13
      2171.16  1.88400e-13
      2172.54  1.98940e-13
      2173.91  1.85450e-13
      2175.28  1.66810e-13
      2176.66  1.76190e-13
      2178.03  1.84420e-13
      2179.41  2.14310e-13
      2180.78  2.69130e-13
      2182.15  2.83600e-13
      2183.53  2.84710e-13
      2184.90  2.46780e-13
      2186.27  2.45810e-13
      2187.65  2.12450e-13
      2189.02  2.17190e-13
      2190.40  2.27080e-13
      2191.77  2.45420e-13
      2193.14  2.66680e-13
      2194.52  2.80670e-13
      2195.89  2.47730e-13
      2197.27  2.52850e-13
      2198.64  2.81680e-13
      2200.01  2.72430e-13
      2201.39  2.38340e-13
      2202.76  2.79490e-13
      2204.14  3.16150e-13
      2205.51  3.03370e-13
      2206.88  2.71920e-13
      2208.26  2.34590e-13
      2209.63  2.05590e-13
      2211.01  1.79120e-13
      2212.38  1.78170e-13
      2213.75  2.17320e-13
      2215.13  2.20550e-13
      2216.50  2.01950e-13
      2217.88  1.83060e-13
      2219.25  2.25380e-13
      2220.62  2.58570e-13
      2222.00  2.74960e-13
      2223.37  2.65770e-13
      2224.75  2.66590e-13
      2226.12  2.59230e-13
      2227.49  2.51910e-13
      2228.87  2.65130e-13
      2230.24  2.68950e-13
      2231.62  2.69380e-13
      2232.99  3.32260e-13
      2234.36  3.70820e-13
      2235.74  3.76670e-13
      2237.11  3.62450e-13
      2238.49  3.34130e-13
      2239.86  3.32760e-13
      2241.23  3.17140e-13
      2242.61  2.89410e-13
      2243.98  2.75050e-13
      2245.36  2.81020e-13
      2246.73  3.13700e-13
      2248.10  3.32380e-13
      2249.48  3.02460e-13
      2250.85  2.81370e-13
      2252.23  2.84710e-13
      2253.60  2.67010e-13
      2254.97  2.65020e-13
      2256.35  2.56290e-13
      2257.72  2.66890e-13
      2259.10  2.70990e-13
      2260.47  2.49770e-13
      2261.84  2.45790e-13
      2263.22  2.46220e-13
      2264.59  2.18520e-13
      2265.97  1.96630e-13
      2267.34  1.86180e-13
      2268.71  1.78130e-13
      2270.09  1.74290e-13
      2271.46  1.74630e-13
      2272.84  1.88450e-13
      2274.21  1.93770e-13
      2275.58  1.97580e-13
      2276.96  2.11010e-13
      2278.33  2.30440e-13
      2279.71  2.40710e-13
      2281.08  2.64670e-13
      2282.45  2.94360e-13
      2283.83  2.85040e-13
      2285.20  2.89420e-13
      2286.58  2.84520e-13
      2287.95  2.56550e-13
      2289.32  2.60380e-13
      2290.70  2.46340e-13
      2292.07  2.51050e-13
      2293.45  2.53470e-13
      2294.82  2.62200e-13
      2296.19  2.66970e-13
      2297.57  2.27160e-13
      2298.94  2.02360e-13
      2300.32  2.14920e-13
      2301.69  2.29450e-13
      2303.06  2.45430e-13
      2304.44  2.62240e-13
      2305.81  3.20090e-13
      2307.19  3.40550e-13
      2308.56  3.11400e-13
      2309.93  2.70000e-13
      2311.31  2.26710e-13
      2312.68  2.05980e-13
      2314.06  2.11810e-13
      2315.43  2.67700e-13
      2316.80  2.88280e-13
      2318.18  2.81400e-13
      2319.55  2.58520e-13
      2320.93  2.36350e-13
      2322.30  2.65810e-13
      2323.68  3.26340e-13
      2325.05  3.00550e-13
      2326.42  2.53530e-13
      2327.80  2.35040e-13
      2329.17  2.56270e-13
      2330.55  2.62290e-13
      2331.92  2.27630e-13
      2333.29  2.08540e-13
      2334.67  2.31320e-13
      2336.04  2.52230e-13
      2337.42  2.26990e-13
      2338.79  1.83100e-13
      2340.16  1.94230e-13
      2341.54  2.18940e-13
      2342.91  2.06420e-13
      2344.29  1.73410e-13
      2345.66  1.61740e-13
      2347.03  1.67920e-13
      2348.41  1.77870e-13
      2349.78  2.07810e-13
      2351.16  2.49690e-13
      2352.53  2.77270e-13
      2353.90  2.87030e-13
      2355.28  2.68410e-13
      2356.65  2.79600e-13
      2358.03  2.87040e-13
      2359.40  2.47200e-13
      2360.77  2.06850e-13
      2362.15  2.28070e-13
      2363.52  2.53950e-13
      2364.90  2.33480e-13
      2366.27  2.18940e-13
      2367.64  2.22100e-13
      2369.02  2.36880e-13
      2370.39  2.65460e-13
      2371.77  2.92970e-13
      2373.14  2.73430e-13
      2374.51  2.36430e-13
      2375.89  2.38820e-13
      2377.26  2.68650e-13
      2378.64  2.56440e-13
      2380.01  2.16310e-13
      2381.38  1.87830e-13
      2382.76  1.61550e-13
      2384.13  1.71800e-13
      2385.51  2.07740e-13
      2386.88  2.35090e-13
      2388.25  2.27510e-13
      2389.63  2.31010e-13
      2391.00  2.47300e-13
      2392.38  2.68060e-13
      2393.75  2.56900e-13
      2395.12  2.08730e-13
      2396.50  1.79330e-13
      2397.87  1.94620e-13
      2399.25  1.99990e-13
      2400.62  2.11030e-13
      2401.99  2.31410e-13
      2403.37  2.26690e-13
      2404.74  1.98100e-13
      2406.12  1.73560e-13
      2407.49  1.81520e-13
      2408.86  2.07270e-13
      2410.24  2.08800e-13
      2411.61  1.83400e-13
      2412.99  1.94390e-13
      2414.36  2.14980e-13
      2415.73  2.53250e-13
      2417.11  2.82990e-13
      2418.48  3.02740e-13
      2419.85  3.28810e-13
      2421.23  3.55580e-13
      2422.60  3.67760e-13
      2423.98  3.34630e-13
      2425.35  3.18610e-13
      2426.72  3.52710e-13
      2428.10  3.74800e-13
      2429.47  3.41670e-13
      2430.85  3.46110e-13
      2432.22  3.37540e-13
      2433.59  3.16080e-13
      2434.97  3.08600e-13
      2436.34  2.97100e-13
      2437.72  3.12330e-13
      2439.09  3.23170e-13
      2440.46  3.07740e-13
      2441.84  3.39220e-13
      2443.21  3.51330e-13
      2444.59  3.22620e-13
      2445.96  3.03620e-13
      2447.33  2.85730e-13
      2448.71  2.64410e-13
      2450.08  2.61810e-13
      2451.45  2.46650e-13
      2452.83  2.39270e-13
      2454.20  2.37990e-13
      2455.58  2.46600e-13
      2456.95  2.53800e-13
      2458.32  2.58760e-13
      2459.70  2.55280e-13
      2461.07  2.40340e-13
      2462.45  2.26850e-13
      2463.82  2.21730e-13
      2465.19  2.40910e-13
      2466.57  2.47640e-13
      2467.94  2.61060e-13
      2469.31  2.77340e-13
      2470.69  2.71160e-13
      2472.06  2.76840e-13
      2473.44  2.65110e-13
      2474.81  2.89130e-13
      2476.18  3.01730e-13
      2477.56  2.92950e-13
      2478.93  2.69960e-13
      2480.30  2.55990e-13
      2481.68  2.69490e-13
      2483.05  2.35850e-13
      2484.43  2.18750e-13
      2485.80  2.47610e-13
      2487.17  2.47920e-13
      2488.55  2.16430e-13
      2489.92  2.00900e-13
      2491.30  1.93660e-13
      2492.67  2.24950e-13
      2494.04  2.74510e-13
      2495.42  3.25840e-13
      2496.79  3.33380e-13
      2498.16  3.37790e-13
      2499.54  3.45890e-13
      2500.91  3.28210e-13
      2502.28  2.94630e-13
      2503.66  3.12150e-13
      2505.03  2.98520e-13
      2506.41  2.74300e-13
      2507.78  2.52030e-13
      2509.15  2.94860e-13
      2510.53  3.07410e-13
      2511.90  2.74510e-13
      2513.27  2.67100e-13
      2514.65  2.32110e-13
      2516.02  2.11350e-13
      2517.40  2.00060e-13
      2518.77  2.05060e-13
      2520.14  2.14620e-13
      2521.52  2.35720e-13
      2522.89  2.15600e-13
      2524.26  1.99960e-13
      2525.64  2.03330e-13
      2527.01  2.17620e-13
      2528.38  2.04770e-13
      2529.76  1.96400e-13
      2531.13  2.41630e-13
      2532.51  2.69990e-13
      2533.88  2.65560e-13
      2535.25  2.63940e-13
      2536.63  2.57600e-13
      2538.00  2.56720e-13
      2539.37  2.62570e-13
      2540.75  2.74680e-13
      2542.12  2.73700e-13
      2543.49  2.90400e-13
      2544.87  2.93120e-13
      2546.24  2.83110e-13
      2547.61  2.81260e-13
      2548.99  2.71020e-13
      2550.36  2.75240e-13
      2551.74  3.44500e-13
      2553.11  3.82720e-13
      2554.48  4.01530e-13
      2555.86  3.99010e-13
      2557.23  3.92270e-13
      2558.60  4.04950e-13
      2559.98  4.26620e-13
      2561.35  4.16830e-13
      2562.72  3.81020e-13
      2564.10  3.64550e-13
      2565.47  4.43820e-13
      2566.84  5.07630e-13
      2568.22  5.30280e-13
      2569.59  5.65630e-13
      2570.96  5.99750e-13
      2572.34  5.95900e-13
      2573.71  6.13210e-13
      2575.08  5.47580e-13
      2576.46  4.45580e-13
      2577.83  4.72800e-13
      2579.21  5.77410e-13
      2580.58  6.74130e-13
      2581.95  7.17850e-13
      2583.33  6.34000e-13
      2584.70  5.43040e-13
      2586.07  4.47930e-13
      2587.45  4.67670e-13
      2588.82  5.72890e-13
      2590.19  6.75230e-13
      2591.57  6.08980e-13
      2592.94  5.36230e-13
      2594.31  4.77400e-13
      2595.69  4.90550e-13
      2597.06  4.65700e-13
      2598.43  3.69320e-13
      2599.81  3.09890e-13
      2601.18  3.75140e-13
      2602.55  4.72570e-13
      2603.93  4.94020e-13
      2605.30  4.47480e-13
      2606.67  3.76790e-13
      2608.05  3.53120e-13
      2609.42  4.05280e-13
      2610.79  4.02330e-13
      2612.17  3.55000e-13
      2613.54  3.43980e-13
      2614.91  3.84950e-13
      2616.28  4.68210e-13
      2617.66  4.56980e-13
      2619.03  4.63630e-13
      2620.40  5.14200e-13
      2621.78  5.17590e-13
      2623.15  5.46690e-13
      2624.52  5.64220e-13
      2625.90  5.11180e-13
      2627.27  4.74130e-13
      2628.64  4.45480e-13
      2630.02  4.15620e-13
      2631.39  4.11590e-13
      2632.76  4.35520e-13
      2634.14  5.75960e-13
      2635.51  7.17810e-13
      2636.88  8.43780e-13
      2638.26  1.00870e-12
      2639.63  1.09740e-12
      2641.00  1.09200e-12
      2642.38  1.18050e-12
      2643.75  1.30300e-12
      2645.12  1.22360e-12
      2646.49  1.10700e-12
      2647.87  1.00530e-12
      2649.24  9.10380e-13
      2650.61  9.28040e-13
      2651.99  9.69440e-13
      2653.36  1.04650e-12
      2654.73  1.16450e-12
      2656.11  1.23360e-12
      2657.48  1.22160e-12
      2658.85  1.18490e-12
      2660.22  1.18990e-12
      2661.60  1.13450e-12
      2662.97  1.05150e-12
      2664.34  1.00590e-12
      2665.72  1.04260e-12
      2667.09  1.03640e-12
      2668.46  1.04550e-12
      2669.84  1.05890e-12
      2671.21  1.07990e-12
      2672.58  1.02430e-12
      2673.95  1.04830e-12
      2675.33  1.19390e-12
      2676.70  1.18810e-12
      2678.07  1.09490e-12
      2679.45  1.00590e-12
      2680.82  1.03230e-12
      2682.19  1.08140e-12
      2683.56  1.08170e-12
      2684.94  1.07300e-12
      2686.31  1.09190e-12
      2687.68  1.08700e-12
      2689.06  1.02140e-12
      2690.43  9.69190e-13
      2691.80  9.95390e-13
      2693.17  1.04700e-12
      2694.55  1.05000e-12
      2695.92  9.72040e-13
      2697.29  9.59180e-13
      2698.66  1.01260e-12
      2700.04  1.13020e-12
      2701.41  1.20740e-12
      2702.78  1.20230e-12
      2704.16  1.23580e-12
      2705.53  1.26520e-12
      2706.90  1.19050e-12
      2708.27  1.10140e-12
      2709.65  1.09310e-12
      2711.02  1.08300e-12
      2712.39  1.12100e-12
      2713.76  1.10600e-12
      2715.14  1.03070e-12
      2716.51  9.69120e-13
      2717.88  9.67400e-13
      2719.25  8.14510e-13
      2720.63  7.02040e-13
      2722.00  7.57140e-13
